X/Ã…       Temperature/K
3.61      426.26    
7.22      444.009   
10.83     446.625   
14.44     395.998   
18.05     351.24    
21.66     350.279   
25.27     329.897   
28.88     327.647   
32.49     364.756   
36.1      379.079   
39.71     336.062   
43.32     329.725   
46.93     303.964   
50.54     276.361   
54.15     294.689   
57.76     286.229   
61.37     259.511   
64.98     240.752   
68.59     215.664   
72.2      230.273   
